Monthly Average Facular and Sunspot Indices from calc_spot_fac_cycle_history.pro
Spot Index is Sunspot Blocking Function with Area-Independent Contrast
Facular Index is on GOME Mg index scale
Mon Jun 15 10:20:21 2015
  YEAR  MONTH        SPOTAV          FACAV-CYCLE
  1882     1        505.2106        0.15546908
  1882     2        975.1804        0.15673034
  1882     3       1352.6442        0.15698703
  1882     4       2517.9660        0.15777173
  1882     5       2104.8058        0.15593211
  1882     6        927.4523        0.15471086
  1882     7        694.1440        0.15494143
  1882     8        925.1323        0.15463650
  1882     9       1350.8190        0.15512785
  1882    10       1933.2087        0.15562676
  1882    11       2770.4887        0.15683224
  1882    12        476.8252        0.15547475
  1883     1       1054.9451        0.15584773
  1883     2        948.4092        0.15542047
  1883     3        754.6338        0.15527206
  1883     4       1481.7003        0.15652848
  1883     5        370.8174        0.15533031
  1883     6       1775.8158        0.15616884
  1883     7       2409.9657        0.15690633
  1883     8        716.1058        0.15601250
  1883     9       1427.8067        0.15666819
  1883    10       2000.4501        0.15765968
  1883    11       2022.3264        0.15905957
  1883    12       1638.9594        0.15879257
  1884     1       1908.6837        0.15975136
  1884     2       1804.6265        0.15970949
  1884     3       1572.1856        0.15948405
  1884     4       1880.3472        0.15825411
  1884     5       1401.8545        0.15793167
  1884     6        618.6085        0.15721227
  1884     7        717.9752        0.15647206
  1884     8        862.7967        0.15643629
  1884     9       1317.6950        0.15665366
  1884    10       1220.7337        0.15585129
  1884    11        543.9131        0.15521270
  1884    12       1114.9476        0.15588087
  1885     1        649.6826        0.15595653
  1885     2       1338.8460        0.15692187
  1885     3        945.4103        0.15567147
  1885     4       1069.0245        0.15575576
  1885     5       1271.5158        0.15765710
  1885     6       2132.5784        0.15759586
  1885     7       1321.2369        0.15689430
  1885     8        742.1639        0.15569675
  1885     9        783.0957        0.15509445
  1885    10        818.3050        0.15477962
  1885    11        524.9544        0.15425651
  1885    12        253.8223        0.15349385
  1886     1        660.9897        0.15338229
  1886     2        384.6093        0.15359544
  1886     3       1266.1125        0.15494740
  1886     4        706.6820        0.15460340
  1886     5        797.2243        0.15360515
  1886     6        435.8879        0.15351799
  1886     7        543.3474        0.15322831
  1886     8        141.0715        0.15278668
  1886     9        259.6605        0.15262018
  1886    10         76.2289        0.15162103
  1886    11          2.5099        0.15097758
  1886    12        245.9063        0.15158874
  1887     1        108.1517        0.15179625
  1887     2         83.6714        0.15199324
  1887     3         27.5059        0.15149782
  1887     4         55.7108        0.15153756
  1887     5        307.5952        0.15228835
  1887     6        354.5380        0.15257233
  1887     7        386.0630        0.15272129
  1887     8        210.5515        0.15244844
  1887     9        178.5025        0.15149398
  1887    10         83.1794        0.15143011
  1887    11         52.3995        0.15147120
  1887    12        682.1128        0.15194306
  1888     1        153.0741        0.15200307
  1888     2        117.8637        0.15133396
  1888     3        115.7191        0.15125880
  1888     4         26.7924        0.15129768
  1888     5        218.1035        0.15115382
  1888     6         50.2760        0.15119094
  1888     7         24.1726        0.15111126
  1888     8         60.5373        0.15132096
  1888     9        137.8616        0.15156133
  1888    10         10.0190        0.15108108
  1888    11        309.7131        0.15134455
  1888    12        107.3148        0.15120502
  1889     1          4.0031        0.15078403
  1889     2         45.6920        0.15099003
  1889     3         27.6352        0.15121426
  1889     4         34.9931        0.15098673
  1889     5          9.9479        0.15083226
  1889     6        260.0671        0.15116637
  1889     7        188.8759        0.15169179
  1889     8        319.7234        0.15201498
  1889     9        100.3649        0.15137875
  1889    10         14.3369        0.15089468
  1889    11          0.0000        0.15070056
  1889    12         56.4307        0.15104304
  1890     1         37.3467        0.15114058
  1890     2          1.2063        0.15082216
  1890     3         64.8183        0.15091213
  1890     4         13.8597        0.15094772
  1890     5         26.7427        0.15124478
  1890     6          9.4167        0.15108272
  1890     7        137.9410        0.15158019
  1890     8        231.8530        0.15176246
  1890     9        267.1404        0.15219981
  1890    10        260.1836        0.15168392
  1890    11        245.5408        0.15143508
  1890    12         82.1578        0.15169544
  1891     1        227.9370        0.15233237
  1891     2        334.7884        0.15318131
  1891     3        138.6108        0.15285903
  1891     4        405.3093        0.15380305
  1891     5        653.0880        0.15554169
  1891     6        738.7312        0.15599155
  1891     7       1102.0728        0.15607071
  1891     8        515.2281        0.15574060
  1891     9       1395.3982        0.15591959
  1891    10        757.4047        0.15611318
  1891    11        758.4077        0.15560624
  1891    12        563.5205        0.15529454
  1892     1       1295.3538        0.15746558
  1892     2       2114.3939        0.15743803
  1892     3        813.4520        0.15665377
  1892     4       1109.1870        0.15782130
  1892     5       1801.4163        0.15855342
  1892     6       1236.0616        0.15913233
  1892     7       2167.3458        0.15840137
  1892     8       1695.1613        0.15951638
  1892     9       1098.3208        0.15809765
  1892    10       1092.0821        0.15770254
  1892    11       1099.6984        0.15742412
  1892    12       1040.0614        0.15884330
  1893     1       1442.0565        0.15818754
  1893     2       1420.8883        0.15782998
  1893     3       1086.3967        0.15855063
  1893     4       1407.9376        0.16025697
  1893     5       1319.3461        0.16132829
  1893     6       1631.6300        0.16111761
  1893     7       1800.0323        0.16150137
  1893     8       2736.5926        0.16313182
  1893     9       2071.8438        0.16060693
  1893    10       1707.2411        0.16089522
  1893    11       1619.4360        0.16021135
  1893    12       2348.3476        0.16044181
  1894     1       1872.8251        0.16245826
  1894     2       1711.6526        0.16144712
  1894     3        741.4829        0.15939244
  1894     4       1876.2195        0.15996014
  1894     5       2036.5895        0.16145425
  1894     6       2193.9758        0.16247168
  1894     7       2040.2230        0.16262987
  1894     8       1442.3590        0.16005792
  1894     9        772.6368        0.15946799
  1894    10       1471.2824        0.15859319
  1894    11        716.9901        0.15841754
  1894    12       1153.7087        0.15822963
  1895     1       1116.4529        0.15853421
  1895     2       1078.2077        0.15942233
  1895     3       1242.4932        0.15892429
  1895     4       1209.2059        0.15919519
  1895     5       1026.9688        0.15860725
  1895     6       1356.1147        0.15845552
  1895     7        509.6281        0.15779888
  1895     8       1681.7523        0.15776302
  1895     9       1024.0531        0.15721161
  1895    10       1543.5273        0.15703406
  1895    11        854.8109        0.15718313
  1895    12       1228.1229        0.15805062
  1896     1        308.3755        0.15593955
  1896     2        986.4575        0.15599806
  1896     3        634.8643        0.15575594
  1896     4        528.7845        0.15518916
  1896     5        264.1846        0.15400663
  1896     6        999.9731        0.15475222
  1896     7        594.9618        0.15517688
  1896     8        348.2738        0.15408921
  1896     9       1390.6171        0.15488566
  1896    10        375.1985        0.15447207
  1896    11        671.6293        0.15484382
  1896    12        727.2960        0.15521183
  1897     1       1604.0723        0.15514808
  1897     2       1132.7703        0.15473834
  1897     3        598.5056        0.15481250
  1897     4        431.6224        0.15473636
  1897     5        541.1547        0.15320535
  1897     6        222.9305        0.15274664
  1897     7        222.5477        0.15389945
  1897     8        519.0787        0.15393148
  1897     9        884.2656        0.15489393
  1897    10        114.8525        0.15334489
  1897    11         36.5399        0.15226569
  1897    12        825.9667        0.15365291
  1898     1        488.1528        0.15463397
  1898     2        710.1106        0.15434430
  1898     3        778.5809        0.15378661
  1898     4        186.1029        0.15274616
  1898     5        274.5516        0.15329090
  1898     6         87.1387        0.15298968
  1898     7         65.7139        0.15227640
  1898     8        606.6335        0.15343852
  1898     9       1023.6165        0.15344572
  1898    10        779.5533        0.15390371
  1898    11        427.6213        0.15370958
  1898    12        236.2920        0.15253515
  1899     1        265.2792        0.15249169
  1899     2         66.5726        0.15190043
  1899     3        328.0552        0.15206149
  1899     4        185.9851        0.15232965
  1899     5         62.3599        0.15196176
  1899     6        280.4015        0.15232846
  1899     7        222.8812        0.15211278
  1899     8          2.0426        0.15108207
  1899     9         52.5799        0.15110760
  1899    10        108.4126        0.15144812
  1899    11         40.1203        0.15153525
  1899    12         69.3985        0.15186525
  1900     1         79.0955        0.15170640
  1900     2        137.8024        0.15177506
  1900     3        140.1374        0.15154296
  1900     4         97.6912        0.15203309
  1900     5        229.8950        0.15202276
  1900     6        139.6523        0.15185647
  1900     7         60.6168        0.15152035
  1900     8         14.5098        0.15118408
  1900     9         27.9320        0.15139515
  1900    10        157.6717        0.15142749
  1900    11         20.8791        0.15105189
  1900    12          0.0000        0.15065472
  1901     1          0.4070        0.15055945
  1901     2          6.6376        0.15066096
  1901     3         15.9543        0.15081928
  1901     4          0.0000        0.15065112
  1901     5        273.2348        0.15095766
  1901     6         58.7947        0.15118721
  1901     7          0.5819        0.15071640
  1901     8          0.0000        0.15054247
  1901     9          0.5244        0.15052069
  1901    10         15.0630        0.15072556
  1901    11         53.0216        0.15098717
  1901    12          0.0000        0.15069388
  1902     1        154.0374        0.15086562
  1902     2          0.5240        0.15065439
  1902     3        220.1617        0.15094635
  1902     4          0.0000        0.15063517
  1902     5         43.0521        0.15076094
  1902     6          4.8616        0.15073596
  1902     7          0.6101        0.15061001
  1902     8          3.8848        0.15069108
  1902     9         78.5312        0.15119675
  1902    10        199.8667        0.15165559
  1902    11        170.5669        0.15121355
  1902    12          4.3285        0.15085427
  1903     1         37.1357        0.15142302
  1903     2        138.4746        0.15243654
  1903     3        193.0450        0.15226058
  1903     4        389.3289        0.15294188
  1903     5         87.2450        0.15265492
  1903     6        140.2025        0.15264057
  1903     7        319.9079        0.15323097
  1903     8        149.1684        0.15330564
  1903     9         67.6884        0.15249148
  1903    10       1236.0989        0.15337254
  1903    11       1024.4070        0.15459185
  1903    12        629.5721        0.15587631
  1904     1        452.7160        0.15446360
  1904     2        452.5647        0.15373005
  1904     3        418.5690        0.15503742
  1904     4       1115.5843        0.15556039
  1904     5        287.6217        0.15601599
  1904     6        424.0776        0.15558171
  1904     7        610.7164        0.15595520
  1904     8        672.9608        0.15584850
  1904     9        248.9597        0.15517805
  1904    10        752.7066        0.15624512
  1904    11        424.9696        0.15621744
  1904    12        878.1613        0.15743441
  1905     1       1198.2060        0.15778374
  1905     2       2482.8572        0.15814525
  1905     3       1666.0256        0.15601964
  1905     4        523.1176        0.15556936
  1905     5        828.7711        0.15594106
  1905     6        843.5264        0.15638598
  1905     7       1743.3268        0.15704699
  1905     8       1284.4170        0.15760005
  1905     9        800.5000        0.15762358
  1905    10       2565.6356        0.15740243
  1905    11       2311.9928        0.15943019
  1905    12        911.5541        0.15799499
  1906     1        916.3634        0.15630719
  1906     2        476.0369        0.15560162
  1906     3       1248.7035        0.15721121
  1906     4        811.2048        0.15698168
  1906     5       1233.9546        0.15683845
  1906     6        824.0272        0.15791730
  1906     7       1843.6749        0.16095906
  1906     8        832.0743        0.15747835
  1906     9        647.9176        0.15672590
  1906    10         82.1261        0.15399695
  1906    11        685.7640        0.15504931
  1906    12       1269.0413        0.15749413
  1907     1       1428.6132        0.15931033
  1907     2       2931.4444        0.15996386
  1907     3        973.7311        0.15864134
  1907     4        806.2640        0.15658828
  1907     5        703.8189        0.15513875
  1907     6       1110.5627        0.15467888
  1907     7       1033.5125        0.15537570
  1907     8        852.5456        0.15744254
  1907     9       1648.1667        0.15892306
  1907    10       1396.7198        0.15847703
  1907    11       1242.2621        0.15743421
  1907    12       1218.6506        0.15638359
  1908     1        554.9354        0.15622289
  1908     2        292.7338        0.15576600
  1908     3        258.1290        0.15567603
  1908     4        820.3795        0.15700149
  1908     5        547.0547        0.15697783
  1908     6        866.3232        0.15662390
  1908     7        369.7773        0.15632792
  1908     8       2122.9998        0.15739486
  1908     9       2082.5899        0.15798304
  1908    10        425.6903        0.15599264
  1908    11        949.1934        0.15560752
  1908    12        679.0937        0.15575676
  1909     1       1492.1280        0.15664040
  1909     2        895.7349        0.15641274
  1909     3       1226.3314        0.15660326
  1909     4        617.5385        0.15521012
  1909     5        606.9244        0.15447766
  1909     6        315.0651        0.15389731
  1909     7        711.1959        0.15427501
  1909     8        161.0259        0.15448492
  1909     9        757.9864        0.15493613
  1909    10       1021.0671        0.15669573
  1909    11       1007.4067        0.15696889
  1909    12       1005.8078        0.15673455
  1910     1        490.1272        0.15518457
  1910     2        801.3531        0.15399262
  1910     3        299.8354        0.15328509
  1910     4         63.0720        0.15252498
  1910     5        398.3750        0.15320879
  1910     6         87.3732        0.15253093
  1910     7        230.8114        0.15245485
  1910     8        217.1616        0.15243154
  1910     9        424.1144        0.15332609
  1910    10        661.5967        0.15367230
  1910    11         39.4349        0.15194212
  1910    12         40.9617        0.15136133
  1911     1         46.1505        0.15125686
  1911     2         93.3230        0.15151296
  1911     3         99.2774        0.15190347
  1911     4        301.4856        0.15277259
  1911     5        113.9383        0.15224428
  1911     6         30.5365        0.15136960
  1911     7         20.6575        0.15122811
  1911     8         36.4072        0.15117897
  1911     9         70.5848        0.15105682
  1911    10         27.2950        0.15092688
  1911    11         75.4981        0.15101285
  1911    12         18.3546        0.15084593
  1912     1          0.0000        0.15060059
  1912     2          0.0000        0.15062351
  1912     3         69.2307        0.15094601
  1912     4         82.5040        0.15086403
  1912     5         27.6988        0.15097004
  1912     6         86.5731        0.15114980
  1912     7         15.5303        0.15089318
  1912     8          0.2746        0.15079215
  1912     9         59.8149        0.15123527
  1912    10         71.8255        0.15090955
  1912    11          3.7621        0.15070456
  1912    12        109.2350        0.15094751
  1913     1         12.6573        0.15084395
  1913     2         25.4617        0.15086714
  1913     3          0.3430        0.15063580
  1913     4          5.1179        0.15061567
  1913     5          0.0000        0.15049690
  1913     6          0.0000        0.15049608
  1913     7         11.0511        0.15063679
  1913     8          0.0000        0.15052501
  1913     9          3.3861        0.15059954
  1913    10         19.1835        0.15078652
  1913    11          3.0200        0.15070278
  1913    12         28.4465        0.15077758
  1914     1         13.5209        0.15088432
  1914     2         14.7909        0.15087989
  1914     3         16.8021        0.15113245
  1914     4        335.8589        0.15188250
  1914     5         54.7454        0.15163938
  1914     6        193.7664        0.15157697
  1914     7         45.5234        0.15142947
  1914     8        325.2330        0.15163642
  1914     9        371.6504        0.15226329
  1914    10         48.5595        0.15210973
  1914    11        213.5125        0.15292069
  1914    12        352.1572        0.15391927
  1915     1        348.5025        0.15445939
  1915     2        714.4243        0.15530677
  1915     3        482.2818        0.15615514
  1915     4       1099.9843        0.15558429
  1915     5        593.1301        0.15549281
  1915     6       1168.0475        0.15664296
  1915     7       1413.9758        0.15760009
  1915     8       1174.1249        0.15752435
  1915     9        906.6955        0.15675166
  1915    10        751.1569        0.15610252
  1915    11        448.3795        0.15635555
  1915    12        372.8139        0.15609246
  1916     1        624.4005        0.15720042
  1916     2        823.2237        0.15803258
  1916     3       1101.9982        0.15798046
